#  Table f555w_sys.tab  Mon 11:02:08 21-Aug-95
#      WAVELENGTH      THROUGHPUT
#       angstroms                
         4002.226     5.167471E-6
          4008.18     5.262400E-6
         4014.143     5.314101E-6
         4020.117     5.342753E-6
         4026.101     5.169039E-6
          4032.09     5.035226E-6
         4038.089     4.975971E-6
         4044.099     4.991756E-6
         4050.113     5.041043E-6
         4056.141     5.011113E-6
         4062.178     4.990660E-6
         4068.221     4.987044E-6
         4074.274     5.001806E-6
         4080.337     5.017106E-6
         4086.408     4.911365E-6
         4092.487     4.844468E-6
         4098.578     4.833759E-6
         4104.676     4.890706E-6
         4110.783     4.961117E-6
           4116.9     4.982904E-6
         4123.025     4.998657E-6
         4129.162     5.008229E-6
         4135.305     4.984880E-6
         4141.457     4.941505E-6
         4147.619     4.850366E-6
         4153.792     4.820740E-6
         4159.971     4.829803E-6
         4166.163     4.940712E-6
          4172.36     4.931484E-6
         4178.568     4.726081E-6
         4184.785     4.748635E-6
         4191.015     4.811571E-6
         4197.248     4.730831E-6
         4203.495     4.725140E-6
         4209.749     4.778800E-6
         4216.011     4.670429E-6
         4222.284     4.607134E-6
         4228.568     4.635338E-6
         4234.859     4.704910E-6
         4241.162     4.742576E-6
         4247.471     4.583233E-6
          4253.79     4.471895E-6
         4260.119     4.392092E-6
         4266.461     4.282676E-6
         4272.809     4.131998E-6
         4279.166     3.929012E-6
         4285.532     3.809510E-6
         4291.908     3.705583E-6
         4298.295     3.609019E-6
         4304.692     3.584181E-6
         4311.094     3.652641E-6
         4317.511     4.048255E-6
         4323.934     5.065477E-6
         4330.367     6.718910E-6
         4336.812     1.233281E-5
         4343.266     2.187687E-5
         4349.728     3.527957E-5
         4356.199     7.609629E-5
          4362.68     1.375955E-4
          4369.17     2.268182E-4
         4375.673     4.377181E-4
         4382.185     7.111479E-4
         4388.705     0.001072694
         4395.234     0.001875217
         4401.775     0.002912606
         4408.322     0.004282073
         4414.885     0.005988366
         4421.453     0.007973242
         4428.031      0.01052821
         4434.622      0.01320225
         4441.216      0.01600271
         4447.826      0.01913554
         4454.446      0.02209601
         4461.073      0.02498563
          4467.71      0.02793239
         4474.359      0.03057197
         4481.014      0.03302712
         4487.683      0.03535731
         4494.361       0.0373519
         4501.048      0.03918835
         4507.744      0.04114059
         4514.451      0.04280312
         4521.169      0.04430711
         4527.898      0.04573911
         4534.635      0.04700013
         4541.381       0.0481678
         4548.137      0.04926196
         4554.904       0.0502434
         4561.683      0.05116626
         4568.472      0.05203304
         4575.269      0.05284074
         4582.076      0.05361376
         4588.893       0.0543417
         4595.722      0.05501303
         4602.562       0.0556623
         4609.409      0.05629093
         4616.267      0.05690343
         4623.135      0.05750944
         4630.015      0.05810902
         4636.903      0.05866744
         4643.805       0.0592218
         4650.713      0.05976856
         4657.632      0.06028025
         4664.562      0.06080012
         4671.504      0.06132196
         4678.457      0.06183239
         4685.414      0.06234879
         4692.388      0.06286554
         4699.369      0.06337729
         4706.363      0.06388846
         4713.367      0.06438911
         4720.377      0.06487854
         4727.402      0.06538134
         4734.435      0.06586285
         4741.479      0.06633826
         4748.536      0.06683741
           4755.6      0.06733742
         4762.678      0.06783409
         4769.763       0.0683237
         4776.859      0.06881543
         4783.969      0.06930853
         4791.083      0.06979877
         4798.214      0.07026944
         4805.355       0.0707707
         4812.504      0.07127139
         4819.667      0.07175162
         4826.834      0.07225612
         4834.018      0.07275791
         4841.213      0.07325766
         4848.415      0.07376403
         4855.628      0.07424854
         4862.853      0.07473105
         4870.087       0.0752198
         4877.335      0.07570457
         4884.594      0.07618737
         4891.861      0.07667255
         4899.139      0.07716832
         4906.427      0.07765672
         4913.729       0.0781418
         4921.042      0.07862552
         4928.364      0.07911601
         4935.696      0.07960816
         4943.039      0.08008974
         4950.396       0.0805577
         4957.763      0.08106302
         4965.139      0.08155534
         4972.526      0.08203913
         4979.924      0.08251715
         4987.333      0.08298369
         4994.755      0.08346412
         5002.189      0.08397117
         5009.631      0.08452285
         5017.084      0.08507606
         5024.548      0.08564428
         5032.026      0.08621337
         5039.515      0.08675766
          5047.01      0.08731117
         5054.521      0.08787427
         5062.041       0.0884478
         5069.575      0.08903509
          5077.12      0.08959048
          5084.67      0.09012136
         5092.238      0.09065255
         5099.814      0.09121685
         5107.401      0.09176111
         5115.002      0.09229163
         5122.609      0.09281769
         5130.233      0.09334967
         5137.869      0.09387328
         5145.513      0.09442106
          5153.17      0.09496346
         5160.834      0.09548404
         5168.515      0.09600573
         5176.208      0.09650932
         5183.908      0.09700757
         5191.621        0.097504
         5199.344      0.09799626
         5207.083       0.0984946
         5214.832       0.0989952
          5222.59       0.0994935
          5230.36      0.09998497
         5238.142       0.1004688
         5245.935       0.1009466
         5253.742       0.1014078
         5261.562       0.1018483
         5269.386       0.1022707
         5277.229       0.1027426
          5285.08       0.1031796
         5292.945       0.1036006
         5300.823       0.1040278
         5308.707       0.1044306
         5316.607       0.1048351
         5324.517       0.1052362
         5332.438       0.1056242
         5340.375        0.105989
          5348.32       0.1063699
          5356.28       0.1067045
         5364.249       0.1070597
         5372.229       0.1074226
         5380.225       0.1077288
         5388.226       0.1080356
         5396.245       0.1083387
         5404.276       0.1086444
         5412.316       0.1089363
         5420.372       0.1091868
         5428.433       0.1094692
         5436.512       0.1097105
         5444.603       0.1099342
         5452.703       0.1101533
         5460.815       0.1103736
         5468.939       0.1105824
         5477.076       0.1107421
          5485.23       0.1109113
         5493.391       0.1110671
         5501.563       0.1111846
         5509.749       0.1112766
         5517.946       0.1113147
         5526.158       0.1113706
         5534.382       0.1113897
         5542.616       0.1113914
         5550.862        0.111429
         5559.121       0.1113884
         5567.394       0.1113405
          5575.68       0.1112432
         5583.975       0.1111604
         5592.283       0.1110866
         5600.603       0.1109183
         5608.935       0.1106167
         5617.282       0.1102151
         5625.643       0.1098611
         5634.012       0.1094817
         5642.394        0.109053
         5650.789        0.108646
         5659.199       0.1081735
         5667.621       0.1077479
          5676.05       0.1072405
         5684.498       0.1067863
         5692.955       0.1063886
         5701.424       0.1059379
         5709.913       0.1054253
         5718.404         0.10484
         5726.915        0.104258
         5735.435       0.1036364
         5743.968       0.1029818
         5752.517       0.1023391
         5761.072       0.1017384
         5769.649       0.1010389
         5778.233       0.1003434
          5786.83      0.09958795
         5795.442      0.09887119
         5804.061      0.09811157
         5812.699       0.0972972
          5821.35      0.09653324
         5830.011       0.0956739
         5838.684      0.09491539
         5847.371      0.09401845
          5856.07      0.09315793
         5864.789      0.09228715
         5873.514      0.09139391
         5882.252      0.09048986
         5891.003      0.08953258
         5899.768        0.088635
         5908.548      0.08768183
         5917.342      0.08672252
         5926.146       0.0857469
         5934.962      0.08478978
         5943.792      0.08378358
         5952.638      0.08273222
         5961.497      0.08176506
         5970.366      0.08067136
         5979.249      0.07971676
         5988.144      0.07859144
         5997.053      0.07756683
         6005.981      0.07638554
         6014.917      0.07517783
         6023.866      0.07395909
         6032.828      0.07270126
         6041.803      0.07150514
         6050.795      0.07018672
           6059.8      0.06904745
         6068.813      0.06773675
         6077.844      0.06658099
         6086.887      0.06529614
         6095.942      0.06409171
         6105.018      0.06284931
         6114.098      0.06160625
         6123.197      0.06041522
         6132.307      0.05917595
          6141.43      0.05802486
         6150.574      0.05672576
         6159.717      0.05561306
         6168.888      0.05435266
         6178.066      0.05324004
         6187.257      0.05200757
         6196.466      0.05086808
         6205.681      0.04968328
         6214.917      0.04851865
         6224.167      0.04737895
         6233.427      0.04622796
           6242.7      0.04512844
         6251.988       0.0439819
         6261.292      0.04293094
         6270.611      0.04177031
          6279.94      0.04077591
         6289.283      0.03964166
          6298.64      0.03865711
         6308.011      0.03757701
         6317.402      0.03659525
         6326.801       0.0355541
         6336.214      0.03458651
          6345.64      0.03359004
         6355.081      0.03262535
         6364.539      0.03167524
         6374.012      0.03071671
         6383.494      0.02980671
         6392.991      0.02887702
         6402.502      0.02799237
         6412.031      0.02705841
         6421.571      0.02623997
         6431.128      0.02535177
         6440.692      0.02456876
         6450.278      0.02370828
         6459.874       0.0229707
         6469.488      0.02216044
         6479.117      0.02144234
         6488.752      0.02066446
          6498.41      0.01997677
         6508.078      0.01922775
         6517.764      0.01849974
          6527.46      0.01778251
         6537.171       0.0171093
           6546.9      0.01641281
         6556.641       0.0157699
         6566.399      0.01512345
         6576.168      0.01451141
         6585.952      0.01389923
          6595.75      0.01332129
         6605.566      0.01275353
         6615.394      0.01221225
         6625.239      0.01168409
         6635.092      0.01117668
         6644.967      0.01068611
         6654.857      0.01021226
         6664.757     0.009760065
         6674.677     0.009319439
         6684.603     0.008890386
         6694.552     0.008472343
         6704.515     0.008081257
          6714.49     0.007693727
         6724.479     0.007325241
         6734.483     0.006968181
         6744.506     0.006637805
         6754.541     0.006306647
         6764.593     0.005987816
         6774.657     0.005685327
         6784.736     0.005402246
          6794.83     0.005122724
         6804.943     0.004858097
          6815.07     0.004607157
         6825.209     0.004365744
         6835.364     0.004129439
         6845.533     0.003906042
         6855.721      0.00374688
          6865.92     0.003630091
         6876.139     0.003513827
         6886.369     0.003398198
         6896.614     0.003283115
         6906.875     0.003168515
         6917.154     0.003020574
         6927.449     0.002848011
         6937.751     0.002692454
         6948.076     0.002536815
         6958.414     0.002397205
          6968.77      0.00225554
         6979.141     0.002133146
         6989.521     0.002002041
         6999.923     0.001891723
         7010.337     0.001772717
         7020.771     0.001670255
         7031.211     0.001562618
         7041.676     0.001471757
         7052.156     0.001378033
         7062.648     0.001295095
         7073.155     0.001213209
         7083.682     0.001139433
         7094.217     0.001066961
         7104.775     0.001000159
         7115.349     9.367241E-4
         7125.935     8.765953E-4
         7136.537     8.209323E-4
         7147.154     7.670981E-4
         7157.791     7.188966E-4
         7168.444     6.705511E-4
         7179.108     6.285466E-4
         7189.789     5.846340E-4
         7200.486     5.483517E-4
         7211.202     5.104514E-4
         7221.931     4.781704E-4
         7232.679     4.455061E-4
         7243.439     4.164524E-4
         7254.216     3.881026E-4
         7265.008     3.623936E-4
          7275.82     3.385092E-4
         7286.649     3.152535E-4
         7297.485     2.943742E-4
         7308.346     2.739250E-4
         7319.219     2.560287E-4
         7330.112     2.377000E-4
         7341.022     2.222271E-4
         7351.939     2.063656E-4
         7362.881     1.927654E-4
         7373.835     1.794592E-4
         7384.806     1.672299E-4
         7395.796     1.556625E-4
         7406.799     1.447543E-4
         7417.819     1.349172E-4
         7428.858     1.252708E-4
         7439.911     1.168155E-4
         7450.983     1.084648E-4
         7462.064     1.012833E-4
          7473.17     9.399987E-5
         7484.292     8.758352E-5
         7495.427     8.139855E-5
