#  Table f622w_sys.tab  Mon 11:02:31 21-Aug-95
#      WAVELENGTH      THROUGHPUT
#       angstroms                
         5002.189     7.627094E-8
         5009.631     6.347690E-8
         5017.084     6.080472E-8
         5024.548     6.791166E-8
         5032.026     7.831174E-8
         5039.515     5.872233E-8
          5047.01     8.150941E-8
         5054.521     6.544417E-8
         5062.041     7.876270E-8
         5069.575     6.985783E-8
          5077.12     6.066077E-8
          5084.67     6.279943E-8
         5092.238     7.641024E-8
         5099.814     8.292284E-8
         5107.401     7.655669E-8
         5115.002     9.027875E-8
         5122.609     9.196622E-8
         5130.233     9.339654E-8
         5137.869     9.553963E-8
         5145.513     8.740409E-8
          5153.17     9.330871E-8
         5160.834     8.459798E-8
         5168.515     1.135689E-7
         5176.208     1.254313E-7
         5183.908     1.481609E-7
         5191.621     2.225352E-7
         5199.344     3.085079E-7
         5207.083     4.543149E-7
         5214.832     8.146072E-7
          5222.59     1.434725E-6
          5230.36     2.503284E-6
         5238.142     4.259926E-6
         5245.935     6.546701E-6
         5253.742     9.115439E-6
         5261.562     1.166313E-5
         5269.386     1.441571E-5
         5277.229     1.832095E-5
          5285.08     2.482291E-5
         5292.945     3.591066E-5
         5300.823     5.435527E-5
         5308.707     8.575654E-5
         5316.607     1.387174E-4
         5324.517     2.279874E-4
         5332.438     3.759603E-4
         5340.375     6.042757E-4
          5348.32     8.751929E-4
          5356.28     0.001152587
         5364.249     0.001433058
         5372.229     0.001931635
         5380.225     0.002793978
         5388.226     0.003945326
         5396.245     0.005417103
         5404.276     0.007263312
         5412.316     0.009493491
         5420.372       0.0121389
         5428.433      0.01518035
         5436.512      0.01860617
         5444.603      0.02240955
         5452.703      0.02658796
         5460.815      0.03108793
         5468.939      0.03587328
         5477.076      0.04081836
          5485.23      0.04590267
         5493.391      0.05094581
         5501.563      0.05587418
         5509.749      0.06074315
         5517.946       0.0654072
         5526.158       0.0698349
         5534.382      0.07403068
         5542.616      0.07792708
         5550.862      0.08147502
         5559.121       0.0846935
         5567.394      0.08770435
          5575.68      0.09045837
         5583.975      0.09306698
         5592.283      0.09548993
         5600.603      0.09777287
         5608.935       0.0996974
         5617.282          0.1015
         5625.643       0.1032196
         5634.012       0.1048754
         5642.394       0.1065161
         5650.789        0.108195
         5659.199       0.1098403
         5667.621       0.1114325
          5676.05       0.1129754
         5684.498       0.1144972
         5692.955        0.116039
         5701.424       0.1177654
         5709.913        0.119257
         5718.404       0.1207434
         5726.915       0.1220796
         5735.435       0.1234011
         5743.968       0.1246246
         5752.517       0.1257871
         5761.072       0.1269422
         5769.649        0.127946
         5778.233       0.1288601
          5786.83       0.1297089
         5795.442       0.1304506
         5804.061       0.1311207
         5812.699       0.1317378
          5821.35       0.1322584
         5830.011       0.1326293
         5838.684       0.1330578
         5847.371       0.1334296
          5856.07       0.1337376
         5864.789       0.1340998
         5873.514       0.1343784
         5882.252       0.1347134
         5891.003       0.1350345
         5899.768       0.1353132
         5908.548       0.1355957
         5917.342        0.135935
         5926.146       0.1363088
         5934.962       0.1367048
         5943.792        0.137073
         5952.638       0.1374559
         5961.497       0.1378902
         5970.366       0.1383594
         5979.249       0.1387406
         5988.144       0.1391873
         5997.053       0.1395667
         6005.981       0.1397469
         6014.917       0.1398362
         6023.866       0.1399697
         6032.828       0.1400528
         6041.803        0.140051
         6050.795       0.1400496
           6059.8        0.139974
         6068.813       0.1398677
         6077.844       0.1397347
         6086.887       0.1395991
         6095.942        0.139392
         6105.018       0.1392188
         6114.098       0.1389863
         6123.197       0.1387368
         6132.307        0.138412
          6141.43        0.138062
         6150.574       0.1377701
         6159.717       0.1375304
         6168.888          0.1373
         6178.066       0.1371714
         6187.257       0.1369927
         6196.466        0.136842
         6205.681       0.1366786
         6214.917       0.1364997
         6224.167       0.1364447
         6233.427       0.1364393
           6242.7       0.1364679
         6251.988       0.1366343
         6261.292       0.1368164
         6270.611       0.1369999
          6279.94       0.1372796
         6289.283        0.137537
          6298.64       0.1378238
         6308.011       0.1380814
         6317.402       0.1384791
         6326.801       0.1388026
         6336.214       0.1391867
          6345.64       0.1395363
         6355.081       0.1398705
         6364.539       0.1401694
         6374.012       0.1405673
         6383.494       0.1408998
         6392.991       0.1411801
         6402.502       0.1413093
         6412.031       0.1413101
         6421.571       0.1412765
         6431.128       0.1412934
         6440.692       0.1412304
         6450.278       0.1411292
         6459.874       0.1409405
         6469.488        0.140701
         6479.117       0.1404168
         6488.752       0.1400567
          6498.41       0.1397076
         6508.078       0.1392021
         6517.764       0.1386236
          6527.46       0.1375085
         6537.171       0.1374506
           6546.9       0.1367339
         6556.641       0.1358972
         6566.399       0.1349755
         6576.168       0.1339866
         6585.952       0.1329332
          6595.75       0.1317699
         6605.566       0.1304431
         6615.394       0.1289157
         6625.239       0.1272158
         6635.092       0.1253522
         6644.967       0.1233218
         6654.857       0.1210085
         6664.757        0.118306
         6674.677       0.1151596
         6684.603       0.1116897
         6694.552       0.1081952
         6704.515       0.1050136
          6714.49       0.1023097
         6724.479       0.1002756
         6734.483      0.09890314
         6744.506      0.09791802
         6754.541      0.09714157
         6764.593      0.09638182
         6774.657      0.09612345
         6784.736      0.09683786
          6794.83      0.09895589
         6804.943       0.1026129
          6815.07       0.1076616
         6825.209       0.1133968
         6835.364       0.1185912
         6845.533       0.1207735
         6855.721        0.117453
          6865.92       0.1071983
         6876.139      0.09088353
         6886.369      0.07177833
         6896.614       0.0533745
         6906.875      0.03807273
         6917.154       0.0266675
         6927.449      0.01865538
         6937.751      0.01322397
         6948.076     0.009519616
         6958.414     0.006961855
          6968.77     0.005148117
         6979.141     0.004048705
         6989.521     0.003517707
         6999.923     0.002941927
         7010.337     0.002268776
         7020.771     0.001757081
         7031.211     0.001363078
         7041.676     0.001062962
         7052.156     8.355394E-4
         7062.648     6.729381E-4
         7073.155     5.429901E-4
         7083.682     4.467840E-4
         7094.217     3.731365E-4
         7104.775     3.137879E-4
         7115.349     2.640380E-4
         7125.935     2.217636E-4
         7136.537     1.855029E-4
         7147.154     1.555023E-4
         7157.791     1.297772E-4
         7168.444     1.082912E-4
         7179.108     9.087787E-5
         7189.789     7.719646E-5
         7200.486     6.669561E-5
         7211.202     5.850526E-5
         7221.931     5.162087E-5
         7232.679     4.568347E-5
         7243.439     4.030753E-5
         7254.216     3.549471E-5
         7265.008     3.142061E-5
          7275.82     2.759180E-5
         7286.649     2.433867E-5
         7297.485     2.137480E-5
         7308.346     1.890420E-5
         7319.219     1.671281E-5
         7330.112     1.494338E-5
         7341.022     1.329091E-5
         7351.939     1.197396E-5
         7362.881     1.098434E-5
         7373.835     9.973967E-6
         7384.806     9.307414E-6
         7395.796     8.526419E-6
         7406.799     7.958165E-6
         7417.819     7.206118E-6
         7428.858     6.740334E-6
         7439.911     6.049564E-6
         7450.983     5.475303E-6
         7462.064     4.943568E-6
          7473.17     4.484736E-6
         7484.292     4.119242E-6
         7495.427     3.773492E-6
