#  Table f622w.tab  Mon 11:02:30 21-Aug-95
# WAVELENGTH   THROUGHPUT        error
#  ANGSTROMS TRANSMISSION TRANSMISSION
      5000.0    8.4291E-7           0.
      5002.0    8.6220E-7           0.
      5004.0    7.9867E-7           0.
      5006.0    7.5631E-7           0.
      5008.0    7.6258E-7           0.
      5010.0    6.9596E-7           0.
      5012.0    5.6721E-7           0.
      5014.0    5.0109E-7           0.
      5016.0    5.7924E-7           0.
      5018.0    7.5472E-7           0.
      5020.0    8.2750E-7           0.
      5022.0    7.9847E-7           0.
      5024.0    7.4607E-7           0.
      5026.0    7.5542E-7           0.
      5028.0    7.6665E-7           0.
      5030.0    7.7958E-7           0.
      5032.0    8.5862E-7           0.
      5034.0    8.1935E-7           0.
      5036.0    6.4158E-7           0.
      5038.0    5.5985E-7           0.
      5040.0    6.6514E-7           0.
      5042.0    7.5502E-7           0.
      5044.0    8.1994E-7           0.
      5046.0    9.0783E-7           0.
      5048.0    8.5772E-7           0.
      5050.0    8.3863E-7           0.
      5052.0    8.2372E-7           0.
      5054.0    7.1147E-7           0.
      5056.0    6.8433E-7           0.
      5058.0    7.6437E-7           0.
      5060.0    8.5643E-7           0.
      5062.0    8.4271E-7           0.
      5064.0    8.4480E-7           0.
      5066.0    8.4211E-7           0.
      5068.0    7.6735E-7           0.
      5070.0    7.3653E-7           0.
      5072.0    7.5363E-7           0.
      5074.0    6.6673E-7           0.
      5076.0    6.3372E-7           0.
      5078.0    6.4754E-7           0.
      5080.0    6.7996E-7           0.
      5082.0    6.9248E-7           0.
      5084.0    6.5222E-7           0.
      5086.0    6.7608E-7           0.
      5088.0    7.9449E-7           0.
      5090.0    8.3675E-7           0.
      5092.0    8.0384E-7           0.
      5094.0    7.6029E-7           0.
      5096.0    8.1169E-7           0.
      5098.0    8.7333E-7           0.
      5100.0    8.6051E-7           0.
      5102.0    8.4619E-7           0.
      5104.0    8.2869E-7           0.
      5106.0    8.0364E-7           0.
      5108.0    7.8554E-7           0.
      5110.0    9.0674E-7           0.
      5112.0    1.0390E-6           0.
      5114.0    1.0290E-6           0.
      5116.0    8.2621E-7           0.
      5118.0    7.0590E-7           0.
      5120.0    8.2163E-7           0.
      5122.0    9.4442E-7           0.
      5124.0    9.2762E-7           0.
      5126.0    9.1052E-7           0.
      5128.0    9.5078E-7           0.
      5130.0    9.4601E-7           0.
      5132.0    9.6709E-7           0.
      5134.0    8.9719E-7           0.
      5136.0    9.0594E-7           0.
      5138.0    9.6888E-7           0.
      5140.0    8.8566E-7           0.
      5142.0    8.0334E-7           0.
      5144.0    8.1557E-7           0.
      5146.0    8.9759E-7           0.
      5148.0    9.0982E-7           0.
      5150.0    9.2126E-7           0.
      5152.0    9.3388E-7           0.
      5154.0    9.3000E-7           0.
      5156.0    9.3855E-7           0.
      5158.0    9.3796E-7           0.
      5160.0    8.4579E-7           0.
      5162.0    8.3167E-7           0.
      5164.0    9.2126E-7           0.
      5166.0    9.8807E-7           0.
      5168.0    1.1135E-6           0.
      5170.0    1.1434E-6           0.
      5172.0    1.0857E-6           0.
      5174.0    1.1503E-6           0.
      5176.0    1.2348E-6           0.
      5178.0    1.2020E-6           0.
      5180.0    1.2647E-6           0.
      5182.0    1.3621E-6           0.
      5184.0    1.4506E-6           0.
      5186.0    1.6564E-6           0.
      5188.0    1.7906E-6           0.
      5190.0    1.9407E-6           0.
      5192.0    2.2122E-6           0.
      5194.0    2.5462E-6           0.
      5196.0    2.7789E-6           0.
      5198.0    2.9141E-6           0.
      5200.0    3.0105E-6           0.
      5202.0    3.1895E-6           0.
      5204.0    3.5067E-6           0.
      5206.0    3.9570E-6           0.
      5208.0    4.7067E-6           0.
      5210.0    5.6124E-6           0.
      5212.0    6.4148E-6           0.
      5214.0    7.3076E-6           0.
      5216.0    8.4430E-6           0.
      5218.0    9.7514E-6           0.
      5220.0    1.1275E-5           0.
      5222.0    1.3014E-5           0.
      5224.0    1.5092E-5           0.
      5226.0    1.7618E-5           0.
      5228.0    2.0233E-5           0.
      5230.0    2.3036E-5           0.
      5232.0    2.6437E-5           0.
      5234.0    3.0404E-5           0.
      5236.0    3.4868E-5           0.
      5238.0    3.9670E-5           0.
      5240.0    4.4721E-5           0.
      5242.0    5.0020E-5           0.
      5244.0    5.5578E-5           0.
      5246.0    6.1374E-5           0.
      5248.0    6.7339E-5           0.
      5250.0    7.3553E-5           0.
      5252.0    7.9668E-5           0.
      5254.0    8.5484E-5           0.
      5256.0    9.1360E-5           0.
      5258.0    9.7246E-5           0.
      5260.0    1.0310E-4           0.
      5262.0    1.0917E-4           0.
      5264.0    1.1523E-4           0.
      5266.0    1.2130E-4           0.
      5268.0    1.2776E-4           0.
      5270.0    1.3472E-4           0.
      5272.0    1.4237E-4           0.
      5274.0    1.5092E-4           0.
      5276.0    1.6077E-4           0.
      5278.0    1.7190E-4           0.
      5280.0    1.8483E-4           0.
      5282.0    1.9954E-4           0.
      5284.0    2.1575E-4           0.
      5286.0    2.3454E-4           0.
      5288.0    2.5671E-4           0.
      5290.0    2.8167E-4           0.
      5292.0    3.0980E-4           0.
      5294.0    3.4212E-4           0.
      5296.0    3.7860E-4           0.
      5298.0    4.2016E-4           0.
      5300.0    4.6739E-4           0.
      5302.0    5.2108E-4           0.
      5304.0    5.8272E-4           0.
      5306.0    6.5401E-4           0.
      5308.0    7.3553E-4           0.
      5310.0    8.2810E-4           0.
      5312.0    9.3319E-4           0.
      5314.0    0.0010529           0.
      5316.0    0.0011891           0.
      5318.0    0.0013442           0.
      5320.0    0.0015212           0.
      5322.0     0.001723           0.
      5324.0    0.0019537           0.
      5326.0    0.0022151           0.
      5328.0    0.0025134           0.
      5330.0    0.0028485           0.
      5332.0    0.0032243           0.
      5334.0    0.0036429           0.
      5336.0    0.0041032           0.
      5338.0    0.0046122           0.
      5340.0    0.0051839           0.
      5342.0    0.0058172           0.
      5344.0    0.0064625           0.
      5346.0    0.0069497           0.
      5368.0     0.013502           0.
      5370.0     0.014933           0.
      5372.0     0.016425           0.
      5374.0     0.018035           0.
      5376.0     0.019765           0.
      5378.0     0.021615           0.
      5380.0     0.023663           0.
      5382.0      0.02581           0.
      5384.0     0.028137           0.
      5386.0     0.030622           0.
      5388.0     0.033267           0.
      5390.0     0.036091           0.
      5392.0     0.039014           0.
      5394.0     0.042136           0.
      5396.0     0.045456           0.
      5398.0     0.048956           0.
      5400.0     0.052694           0.
      5402.0     0.056552           0.
      5404.0     0.060628           0.
      5406.0     0.064903           0.
      5408.0     0.069377           0.
      5410.0     0.073991           0.
      5412.0     0.078823           0.
      5414.0     0.083873           0.
      5416.0     0.089163           0.
      5418.0     0.094631           0.
      5420.0      0.10022           0.
      5422.0      0.10608           0.
      5424.0      0.11205           0.
      5426.0      0.11831           0.
      5428.0      0.12468           0.
      5430.0      0.13114           0.
      5432.0       0.1379           0.
      5434.0      0.14486           0.
      5436.0      0.15192           0.
      5438.0      0.15918           0.
      5440.0      0.16673           0.
      5442.0      0.17429           0.
      5444.0      0.18194           0.
      5446.0       0.1898           0.
      5448.0      0.19785           0.
      5450.0       0.2062           0.
      5452.0      0.21465           0.
      5454.0      0.22311           0.
      5456.0      0.23176           0.
      5458.0       0.2406           0.
      5460.0      0.24955           0.
      5462.0       0.2586           0.
      5464.0      0.26785           0.
      5466.0      0.27709           0.
      5468.0      0.28644           0.
      5470.0      0.29578           0.
      5472.0      0.30523           0.
      5474.0      0.31467           0.
      5476.0      0.32422           0.
      5478.0      0.33376           0.
      5480.0      0.34331           0.
      5482.0      0.35295           0.
      5484.0       0.3627           0.
      5486.0      0.37234           0.
      5488.0      0.38188           0.
      5490.0      0.39133           0.
      5492.0      0.40077           0.
      5494.0      0.41002           0.
      5496.0      0.41927           0.
      5498.0      0.42832           0.
      5500.0      0.43746           0.
      5502.0      0.44651           0.
      5504.0      0.45556           0.
      5506.0      0.46441           0.
      5508.0      0.47335           0.
      5510.0       0.4823           0.
      5512.0      0.49105           0.
      5514.0       0.4995           0.
      5516.0      0.50795           0.
      5518.0      0.51611           0.
      5520.0      0.52416           0.
      5522.0      0.53211           0.
      5524.0      0.53997           0.
      5526.0      0.54782           0.
      5528.0      0.55558           0.
      5530.0      0.56313           0.
      5532.0      0.57049           0.
      5534.0      0.57755           0.
      5536.0      0.58461           0.
      5538.0      0.59157           0.
      5540.0      0.59823           0.
      5542.0      0.60479           0.
      5544.0      0.61125           0.
      5546.0      0.61742           0.
      5548.0      0.62338           0.
      5550.0      0.62925           0.
      5552.0      0.63502           0.
      5554.0      0.64048           0.
      5556.0      0.64575           0.
      5558.0      0.65102           0.
      5560.0      0.65619           0.
      5562.0      0.66126           0.
      5564.0      0.66614           0.
      5566.0      0.67101           0.
      5568.0      0.67578           0.
      5570.0      0.68035           0.
      5572.0      0.68483           0.
      5574.0       0.6891           0.
      5576.0      0.69328           0.
      5578.0      0.69745           0.
      5580.0      0.70163           0.
      5582.0      0.70581           0.
      5584.0      0.70968           0.
      5586.0      0.71356           0.
      5588.0      0.71724           0.
      5590.0      0.72092           0.
      5592.0       0.7246           0.
      5594.0      0.72827           0.
      5596.0      0.73175           0.
      5598.0      0.73523           0.
      5600.0      0.73852           0.
      5602.0       0.7418           0.
      5604.0      0.74498           0.
      5606.0      0.74796           0.
      5608.0      0.75094           0.
      5610.0      0.75383           0.
      5612.0      0.75671           0.
      5614.0      0.75959           0.
      5616.0      0.76238           0.
      5618.0      0.76506           0.
      5620.0      0.76775           0.
      5622.0      0.77043           0.
      5624.0      0.77311           0.
      5626.0       0.7757           0.
      5628.0      0.77838           0.
      5630.0      0.78097           0.
      5632.0      0.78336           0.
      5634.0      0.78584           0.
      5636.0      0.78833           0.
      5638.0      0.79081           0.
      5640.0       0.7933           0.
      5642.0      0.79578           0.
      5644.0      0.79847           0.
      5646.0      0.80105           0.
      5648.0      0.80354           0.
      5650.0      0.80602           0.
      5652.0      0.80851           0.
      5654.0      0.81109           0.
      5656.0      0.81358           0.
      5658.0      0.81597           0.
      5660.0      0.81835           0.
      5662.0      0.82074           0.
      5664.0      0.82312           0.
      5666.0      0.82541           0.
      5668.0       0.8278           0.
      5670.0      0.83008           0.
      5672.0      0.83237           0.
      5674.0      0.83476           0.
      5676.0      0.83684           0.
      5678.0      0.83913           0.
      5680.0      0.84142           0.
      5682.0      0.84351           0.
      5684.0      0.84569           0.
      5686.0      0.84798           0.
      5688.0      0.85007           0.
      5690.0      0.85226           0.
      5692.0      0.85454           0.
      5694.0      0.85703           0.
      5696.0      0.85931           0.
      5698.0      0.86091           0.
      5700.0      0.86538           0.
      5702.0      0.86697           0.
      5704.0      0.86916           0.
      5706.0      0.87125           0.
      5708.0      0.87333           0.
      5710.0      0.87562           0.
      5712.0      0.87781           0.
      5714.0       0.8798           0.
      5716.0      0.88198           0.
      5718.0      0.88407           0.
      5720.0      0.88596           0.
      5722.0      0.88785           0.
      5724.0      0.88974           0.
      5726.0      0.89143           0.
      5728.0      0.89322           0.
      5730.0      0.89521           0.
      5732.0        0.897           0.
      5734.0      0.89869           0.
      5736.0      0.90038           0.
      5738.0      0.90217           0.
      5740.0      0.90376           0.
      5742.0      0.90535           0.
      5744.0      0.90684           0.
      5746.0      0.90833           0.
      5748.0      0.91002           0.
      5750.0      0.91151           0.
      5752.0       0.9129           0.
      5754.0       0.9143           0.
      5756.0      0.91569           0.
      5758.0      0.91728           0.
      5760.0      0.91887           0.
      5762.0      0.92026           0.
      5764.0      0.92155           0.
      5766.0      0.92275           0.
      5768.0      0.92394           0.
      5770.0      0.92503           0.
      5772.0      0.92623           0.
      5774.0      0.92732           0.
      5776.0      0.92841           0.
      5778.0      0.92931           0.
      5780.0       0.9303           0.
      5782.0       0.9312           0.
      5784.0      0.93219           0.
      5786.0      0.93309           0.
      5788.0      0.93408           0.
      5790.0      0.93488           0.
      5792.0      0.93567           0.
      5794.0      0.93637           0.
      5796.0      0.93696           0.
      5798.0      0.93756           0.
      5800.0      0.93836           0.
      5802.0      0.93905           0.
      5804.0      0.93955           0.
      5806.0      0.94015           0.
      5808.0      0.94074           0.
      5810.0      0.94134           0.
      5812.0      0.94184           0.
      5814.0      0.94213           0.
      5816.0      0.94253           0.
      5818.0      0.94303           0.
      5820.0      0.94343           0.
      5822.0      0.94372           0.
      5824.0      0.94382           0.
      5826.0      0.94392           0.
      5828.0      0.94402           0.
      5830.0      0.94422           0.
      5832.0      0.94442           0.
      5834.0      0.94462           0.
      5836.0      0.94492           0.
      5838.0      0.94522           0.
      5840.0      0.94532           0.
      5842.0      0.94551           0.
      5844.0      0.94561           0.
      5846.0      0.94571           0.
      5848.0      0.94591           0.
      5850.0      0.94601           0.
      5852.0      0.94601           0.
      5854.0      0.94601           0.
      5856.0      0.94601           0.
      5858.0      0.94601           0.
      5860.0      0.94621           0.
      5862.0      0.94641           0.
      5864.0      0.94651           0.
      5866.0      0.94661           0.
      5868.0      0.94661           0.
      5870.0      0.94651           0.
      5872.0      0.94641           0.
      5874.0      0.94651           0.
      5876.0      0.94651           0.
      5878.0      0.94661           0.
      5880.0      0.94671           0.
      5882.0      0.94681           0.
      5884.0      0.94691           0.
      5886.0      0.94701           0.
      5888.0      0.94711           0.
      5890.0      0.94711           0.
      5892.0      0.94701           0.
      5894.0      0.94701           0.
      5896.0      0.94691           0.
      5898.0      0.94691           0.
      5900.0      0.94701           0.
      5902.0      0.94711           0.
      5904.0      0.94711           0.
      5906.0      0.94701           0.
      5908.0      0.94691           0.
      5910.0      0.94711           0.
      5912.0       0.9472           0.
      5914.0       0.9473           0.
      5916.0       0.9473           0.
      5918.0       0.9473           0.
      5920.0       0.9475           0.
      5922.0       0.9476           0.
      5924.0       0.9478           0.
      5926.0       0.9479           0.
      5928.0       0.9479           0.
      5930.0        0.948           0.
      5932.0       0.9484           0.
      5934.0       0.9486           0.
      5936.0       0.9487           0.
      5938.0       0.9488           0.
      5940.0      0.94889           0.
      5942.0      0.94909           0.
      5944.0      0.94919           0.
      5946.0      0.94929           0.
      5948.0      0.94949           0.
      5950.0      0.94969           0.
      5952.0      0.94979           0.
      5954.0      0.94989           0.
      5956.0      0.95009           0.
      5958.0      0.95029           0.
      5960.0      0.95058           0.
      5962.0      0.95088           0.
      5964.0      0.95108           0.
      5966.0      0.95148           0.
      5968.0      0.95168           0.
      5970.0      0.95198           0.
      5972.0      0.95218           0.
      5974.0      0.95228           0.
      5976.0      0.95237           0.
      5978.0      0.95257           0.
      5980.0      0.95267           0.
      5982.0      0.95297           0.
      5984.0      0.95337           0.
      5986.0      0.95357           0.
      5988.0      0.95367           0.
      5990.0      0.95387           0.
      5992.0      0.95397           0.
      5994.0      0.95416           0.
      5996.0      0.95426           0.
      5998.0      0.95426           0.
      6000.0      0.95436           0.
      6002.0      0.95446           0.
      6004.0      0.95456           0.
      6006.0      0.95466           0.
      6008.0      0.95476           0.
      6010.0      0.95486           0.
      6012.0      0.95486           0.
      6014.0      0.95496           0.
      6016.0      0.95506           0.
      6018.0      0.95516           0.
      6020.0      0.95536           0.
      6022.0      0.95546           0.
      6024.0      0.95566           0.
      6026.0      0.95566           0.
      6028.0      0.95575           0.
      6030.0      0.95575           0.
      6032.0      0.95585           0.
      6034.0      0.95605           0.
      6036.0      0.95595           0.
      6038.0      0.95575           0.
      6040.0      0.95566           0.
      6042.0      0.95566           0.
      6044.0      0.95546           0.
      6046.0      0.95536           0.
      6048.0      0.95536           0.
      6050.0      0.95546           0.
      6052.0      0.95526           0.
      6054.0      0.95496           0.
      6056.0      0.95486           0.
      6058.0      0.95466           0.
      6060.0      0.95456           0.
      6062.0      0.95436           0.
      6064.0      0.95406           0.
      6066.0      0.95387           0.
      6068.0      0.95367           0.
      6070.0      0.95347           0.
      6072.0      0.95317           0.
      6074.0      0.95297           0.
      6076.0      0.95267           0.
      6078.0      0.95237           0.
      6080.0      0.95208           0.
      6082.0      0.95178           0.
      6084.0      0.95148           0.
      6086.0      0.95128           0.
      6088.0      0.95108           0.
      6090.0      0.95078           0.
      6092.0      0.95039           0.
      6094.0      0.94989           0.
      6096.0      0.94949           0.
      6098.0      0.94909           0.
      6100.0      0.94889           0.
      6102.0       0.9485           0.
      6104.0       0.9482           0.
      6106.0       0.9479           0.
      6108.0       0.9476           0.
      6110.0       0.9472           0.
      6112.0      0.94661           0.
      6114.0      0.94621           0.
      6116.0      0.94581           0.
      6118.0      0.94542           0.
      6120.0      0.94492           0.
      6122.0      0.94452           0.
      6124.0      0.94402           0.
      6126.0      0.94343           0.
      6128.0      0.94293           0.
      6130.0      0.94243           0.
      6132.0      0.94184           0.
      6134.0      0.94124           0.
      6136.0      0.94064           0.
      6138.0      0.94005           0.
      6140.0      0.93945           0.
      6142.0      0.93895           0.
      6144.0      0.93846           0.
      6146.0      0.93796           0.
      6148.0      0.93746           0.
      6150.0      0.93696           0.
      6152.0      0.93647           0.
      6154.0      0.93597           0.
      6156.0      0.93567           0.
      6158.0      0.93527           0.
      6160.0      0.93488           0.
      6162.0      0.93438           0.
      6164.0      0.93388           0.
      6166.0      0.93358           0.
      6168.0      0.93329           0.
      6170.0      0.93289           0.
      6172.0      0.93279           0.
      6174.0      0.93269           0.
      6176.0      0.93229           0.
      6178.0      0.93199           0.
      6180.0       0.9316           0.
      6182.0       0.9313           0.
      6184.0       0.9309           0.
      6186.0       0.9307           0.
      6188.0       0.9304           0.
      6190.0       0.9302           0.
      6192.0       0.9299           0.
      6194.0      0.92961           0.
      6196.0      0.92931           0.
      6198.0      0.92901           0.
      6200.0      0.92871           0.
      6202.0      0.92851           0.
      6204.0      0.92821           0.
      6206.0      0.92782           0.
      6208.0      0.92732           0.
      6210.0      0.92712           0.
      6212.0      0.92682           0.
      6214.0      0.92652           0.
      6216.0      0.92633           0.
      6218.0      0.92623           0.
      6220.0      0.92603           0.
      6222.0      0.92593           0.
      6224.0      0.92583           0.
      6226.0      0.92583           0.
      6228.0      0.92583           0.
      6230.0      0.92573           0.
      6232.0      0.92563           0.
      6234.0      0.92553           0.
      6236.0      0.92553           0.
      6238.0      0.92543           0.
      6240.0      0.92553           0.
      6242.0      0.92553           0.
      6244.0      0.92553           0.
      6246.0      0.92563           0.
      6248.0      0.92583           0.
      6250.0      0.92613           0.
      6252.0      0.92643           0.
      6254.0      0.92662           0.
      6256.0      0.92672           0.
      6258.0      0.92702           0.
      6260.0      0.92732           0.
      6262.0      0.92752           0.
      6264.0      0.92762           0.
      6266.0      0.92792           0.
      6268.0      0.92821           0.
      6270.0      0.92841           0.
      6272.0      0.92871           0.
      6274.0      0.92911           0.
      6276.0      0.92951           0.
      6278.0      0.92981           0.
      6280.0       0.9302           0.
      6282.0       0.9306           0.
      6284.0        0.931           0.
      6286.0       0.9313           0.
      6288.0       0.9315           0.
      6290.0      0.93189           0.
      6292.0      0.93219           0.
      6294.0      0.93249           0.
      6296.0      0.93299           0.
      6298.0      0.93338           0.
      6300.0      0.93378           0.
      6302.0      0.93408           0.
      6304.0      0.93448           0.
      6306.0      0.93478           0.
      6308.0      0.93507           0.
      6310.0      0.93537           0.
      6312.0      0.93587           0.
      6314.0      0.93657           0.
      6316.0      0.93726           0.
      6318.0      0.93776           0.
      6320.0      0.93806           0.
      6322.0      0.93855           0.
      6324.0      0.93905           0.
      6326.0      0.93945           0.
      6328.0      0.93995           0.
      6330.0      0.94034           0.
      6332.0      0.94084           0.
      6334.0      0.94134           0.
      6336.0      0.94203           0.
      6338.0      0.94263           0.
      6340.0      0.94313           0.
      6342.0      0.94353           0.
      6344.0      0.94392           0.
      6346.0      0.94442           0.
      6348.0      0.94482           0.
      6350.0      0.94542           0.
      6352.0      0.94591           0.
      6354.0      0.94631           0.
      6356.0      0.94661           0.
      6358.0      0.94691           0.
      6360.0       0.9472           0.
      6362.0       0.9476           0.
      6364.0       0.9482           0.
      6366.0      0.94889           0.
      6368.0      0.94949           0.
      6370.0      0.94999           0.
      6372.0      0.95039           0.
      6374.0      0.95098           0.
      6376.0      0.95158           0.
      6378.0      0.95208           0.
      6380.0      0.95237           0.
      6382.0      0.95277           0.
      6384.0      0.95327           0.
      6386.0      0.95367           0.
      6388.0      0.95406           0.
      6390.0      0.95446           0.
      6392.0      0.95486           0.
      6394.0      0.95506           0.
      6396.0      0.95526           0.
      6398.0      0.95556           0.
      6400.0      0.95566           0.
      6402.0      0.95575           0.
      6404.0      0.95585           0.
      6406.0      0.95585           0.
      6408.0      0.95585           0.
      6410.0      0.95585           0.
      6412.0      0.95575           0.
      6414.0      0.95566           0.
      6416.0      0.95575           0.
      6418.0      0.95566           0.
      6420.0      0.95566           0.
      6422.0      0.95546           0.
      6424.0      0.95526           0.
      6426.0      0.95516           0.
      6428.0      0.95536           0.
      6430.0      0.95556           0.
      6432.0      0.95566           0.
      6434.0      0.95556           0.
      6436.0      0.95546           0.
      6438.0      0.95536           0.
      6440.0      0.95526           0.
      6442.0      0.95506           0.
      6444.0      0.95496           0.
      6446.0      0.95486           0.
      6448.0      0.95466           0.
      6450.0      0.95456           0.
      6452.0      0.95436           0.
      6454.0      0.95406           0.
      6456.0      0.95377           0.
      6458.0      0.95357           0.
      6460.0      0.95327           0.
      6462.0      0.95287           0.
      6464.0      0.95257           0.
      6466.0      0.95237           0.
      6468.0      0.95198           0.
      6470.0      0.95168           0.
      6472.0      0.95138           0.
      6474.0      0.95098           0.
      6476.0      0.95049           0.
      6478.0      0.95009           0.
      6480.0      0.94979           0.
      6482.0      0.94929           0.
      6484.0       0.9488           0.
      6486.0       0.9483           0.
      6488.0       0.9478           0.
      6490.0       0.9472           0.
      6492.0      0.94671           0.
      6494.0      0.94621           0.
      6496.0      0.94571           0.
      6498.0      0.94542           0.
      6500.0      0.94512           0.
      6502.0      0.94492           0.
      6504.0      0.94452           0.
      6506.0      0.94432           0.
      6508.0      0.94402           0.
      6510.0      0.94392           0.
      6512.0      0.94363           0.
      6514.0      0.94333           0.
      6516.0      0.94303           0.
      6518.0      0.94253           0.
      6520.0      0.94164           0.
      6522.0      0.94044           0.
      6524.0      0.93905           0.
      6526.0      0.93796           0.
      6528.0      0.93736           0.
      6530.0      0.93726           0.
      6532.0      0.93776           0.
      6534.0      0.93855           0.
      6536.0      0.93945           0.
      6538.0      0.93985           0.
      6540.0      0.93975           0.
      6542.0      0.93915           0.
      6544.0      0.93836           0.
      6546.0      0.93766           0.
      6548.0      0.93696           0.
      6550.0      0.93647           0.
      6552.0      0.93587           0.
      6554.0      0.93527           0.
      6556.0      0.93448           0.
      6558.0      0.93358           0.
      6560.0      0.93269           0.
      6562.0      0.93199           0.
      6564.0       0.9313           0.
      6566.0       0.9306           0.
      6568.0      0.92981           0.
      6570.0      0.92901           0.
      6572.0      0.92821           0.
      6574.0      0.92722           0.
      6576.0      0.92633           0.
      6578.0      0.92533           0.
      6580.0      0.92444           0.
      6582.0      0.92354           0.
      6584.0      0.92245           0.
      6586.0      0.92155           0.
      6588.0      0.92056           0.
      6590.0      0.91937           0.
      6592.0      0.91817           0.
      6594.0      0.91708           0.
      6596.0      0.91599           0.
      6598.0      0.91479           0.
      6600.0       0.9135           0.
      6602.0      0.91201           0.
      6604.0      0.91062           0.
      6606.0      0.90922           0.
      6608.0      0.90773           0.
      6610.0      0.90614           0.
      6612.0      0.90445           0.
      6614.0      0.90276           0.
      6616.0      0.90097           0.
      6618.0      0.89908           0.
      6620.0      0.89719           0.
      6622.0      0.89531           0.
      6624.0      0.89342           0.
      6626.0      0.89153           0.
      6628.0      0.88944           0.
      6630.0      0.88725           0.
      6632.0      0.88507           0.
      6634.0      0.88298           0.
      6636.0      0.88079           0.
      6638.0       0.8785           0.
      6640.0      0.87622           0.
      6642.0      0.87383           0.
      6644.0      0.87134           0.
      6646.0      0.86876           0.
      6648.0      0.86608           0.
      6650.0      0.86329           0.
      6652.0      0.86051           0.
      6654.0      0.85762           0.
      6656.0      0.85464           0.
      6658.0      0.85156           0.
      6660.0      0.84828           0.
      6662.0       0.8448           0.
      6664.0      0.84112           0.
      6666.0      0.83754           0.
      6668.0      0.83376           0.
      6670.0      0.82979           0.
      6672.0      0.82571           0.
      6674.0      0.82143           0.
      6676.0      0.81696           0.
      6678.0      0.81259           0.
      6680.0      0.80811           0.
      6682.0      0.80354           0.
      6684.0      0.79906           0.
      6686.0      0.79439           0.
      6688.0      0.78992           0.
      6690.0      0.78524           0.
      6692.0      0.78067           0.
      6694.0       0.7763           0.
      6696.0      0.77192           0.
      6698.0      0.76765           0.
      6700.0      0.76347           0.
      6702.0      0.75939           0.
      6704.0      0.75562           0.
      6706.0      0.75184           0.
      6708.0      0.74836           0.
      6710.0      0.74488           0.
      6712.0       0.7415           0.
      6714.0      0.73822           0.
      6716.0      0.73533           0.
      6718.0      0.73255           0.
      6720.0      0.73006           0.
      6722.0      0.72778           0.
      6724.0      0.72559           0.
      6726.0       0.7236           0.
      6728.0      0.72181           0.
      6730.0      0.72032           0.
      6732.0      0.71903           0.
      6734.0      0.71774           0.
      6736.0      0.71654           0.
      6738.0      0.71545           0.
      6740.0      0.71445           0.
      6742.0      0.71356           0.
      6744.0      0.71276           0.
      6746.0      0.71197           0.
      6748.0      0.71137           0.
      6750.0      0.71068           0.
      6752.0      0.70998           0.
      6754.0      0.70938           0.
      6756.0      0.70859           0.
      6758.0      0.70779           0.
      6760.0       0.7071           0.
      6762.0       0.7065           0.
      6764.0        0.706           0.
      6766.0      0.70561           0.
      6768.0      0.70541           0.
      6770.0      0.70531           0.
      6772.0      0.70561           0.
      6774.0        0.706           0.
      6776.0       0.7068           0.
      6778.0      0.70779           0.
      6780.0      0.70919           0.
      6782.0      0.71088           0.
      6784.0      0.71286           0.
      6786.0      0.71545           0.
      6788.0      0.71853           0.
      6790.0      0.72191           0.
      6792.0      0.72559           0.
      6794.0      0.72987           0.
      6796.0      0.73454           0.
      6798.0      0.73971           0.
      6800.0      0.74557           0.
      6802.0      0.75154           0.
      6804.0        0.758           0.
      6806.0      0.76506           0.
      6808.0      0.77252           0.
      6810.0      0.78037           0.
      6812.0      0.78843           0.
      6814.0      0.79678           0.
      6816.0      0.80543           0.
      6818.0      0.81378           0.
      6820.0      0.82273           0.
      6822.0      0.83187           0.
      6824.0      0.84122           0.
      6826.0      0.85057           0.
      6828.0      0.85961           0.
      6830.0      0.86836           0.
      6832.0      0.87651           0.
      6834.0      0.88397           0.
      6836.0      0.89073           0.
      6838.0       0.8966           0.
      6840.0      0.90137           0.
      6842.0      0.90495           0.
      6844.0      0.90724           0.
      6846.0      0.90813           0.
      6848.0      0.90734           0.
      6850.0      0.90475           0.
      6852.0      0.90008           0.
      6854.0      0.89342           0.
      6856.0      0.88467           0.
      6858.0      0.87393           0.
      6860.0       0.8611           0.
      6862.0      0.84609           0.
      6864.0      0.82919           0.
      6866.0       0.8105           0.
      6868.0      0.79002           0.
      6870.0      0.76775           0.
      6872.0      0.74378           0.
      6874.0      0.71843           0.
      6876.0      0.69199           0.
      6878.0      0.66454           0.
      6880.0      0.63651           0.
      6882.0      0.60976           0.
      6884.0      0.58083           0.
      6886.0       0.5521           0.
      6888.0      0.52356           0.
      6890.0      0.49543           0.
      6892.0      0.46798           0.
      6894.0      0.44124           0.
      6896.0      0.41559           0.
      6898.0      0.39083           0.
      6900.0      0.36667           0.
      6902.0      0.34351           0.
      6904.0      0.32153           0.
      6906.0      0.30066           0.
      6908.0      0.28087           0.
      6910.0      0.26218           0.
      6912.0      0.24458           0.
      6914.0      0.22828           0.
      6916.0      0.21296           0.
      6918.0      0.19954           0.
      6920.0      0.18602           0.
      6922.0      0.17359           0.
      6924.0      0.16206           0.
      6926.0      0.15132           0.
      6928.0      0.14128           0.
      6930.0      0.13213           0.
      6932.0      0.12348           0.
      6934.0      0.11563           0.
      6936.0      0.10837           0.
      6938.0      0.10161           0.
      6940.0     0.095347           0.
      6942.0     0.089471           0.
      6944.0     0.083953           0.
      6946.0     0.078922           0.
      6948.0      0.07417           0.
      6950.0     0.069785           0.
      6952.0     0.065709           0.
      6954.0     0.061851           0.
      6956.0     0.058272           0.
      6958.0     0.054951           0.
      6960.0     0.051819           0.
      6962.0     0.048876           0.
      6964.0     0.046112           0.
      6966.0     0.043527           0.
      6968.0     0.041141           0.
      6970.0     0.038934           0.
      6972.0     0.036806           0.
      6974.0     0.034878           0.
      6976.0     0.033028           0.
      6998.0     0.024389           0.
      7000.0     0.023215           0.
      7002.0     0.022102           0.
      7004.0     0.021048           0.
      7006.0     0.020044           0.
      7008.0     0.019089           0.
      7010.0     0.018175           0.
      7012.0      0.01732           0.
      7014.0     0.016504           0.
      7016.0     0.015739           0.
      7018.0     0.014993           0.
      7020.0     0.014297           0.
      7022.0     0.013621           0.
      7024.0     0.012985           0.
      7026.0     0.012388           0.
      7028.0     0.011811           0.
      7030.0     0.011265           0.
      7032.0     0.010738           0.
      7034.0     0.010251           0.
      7036.0    0.0097813           0.
      7038.0    0.0093388           0.
      7040.0    0.0089163           0.
      7042.0    0.0085146           0.
      7044.0    0.0081358           0.
      7046.0    0.0077769           0.
      7048.0    0.0074319           0.
      7050.0    0.0071038           0.
      7052.0    0.0067946           0.
      7054.0    0.0065977           0.
      7056.0    0.0063164           0.
      7058.0    0.0060499           0.
      7060.0    0.0057994           0.
      7062.0    0.0055617           0.
      7064.0     0.005335           0.
      7066.0    0.0051193           0.
      7068.0    0.0049155           0.
      7070.0    0.0047266           0.
      7072.0    0.0045486           0.
      7074.0    0.0043806           0.
      7076.0    0.0042245           0.
      7078.0    0.0040734           0.
      7080.0    0.0039272           0.
      7082.0     0.003789           0.
      7084.0    0.0036618           0.
      7086.0    0.0035405           0.
      7088.0    0.0034231           0.
      7090.0    0.0033098           0.
      7092.0    0.0032024           0.
      7094.0     0.003102           0.
      7096.0    0.0030016           0.
      7098.0    0.0029051           0.
      7100.0    0.0028147           0.
      7102.0    0.0027272           0.
      7104.0    0.0026447           0.
      7106.0    0.0025631           0.
      7108.0    0.0024826           0.
      7110.0     0.002405           0.
      7112.0    0.0023305           0.
      7114.0    0.0022579           0.
      7116.0    0.0021873           0.
      7118.0    0.0021197           0.
      7120.0    0.0020531           0.
      7122.0    0.0019885           0.
      7124.0    0.0019248           0.
      7126.0    0.0018642           0.
      7128.0    0.0018045           0.
      7130.0    0.0017449           0.
      7132.0    0.0016892           0.
      7134.0    0.0016355           0.
      7136.0    0.0015828           0.
      7138.0    0.0015321           0.
      7140.0    0.0014834           0.
      7142.0    0.0014377           0.
      7144.0    0.0013929           0.
      7146.0    0.0013482           0.
      7148.0    0.0013034           0.
      7150.0    0.0012607           0.
      7152.0    0.0012199           0.
      7154.0    0.0011811           0.
      7156.0    0.0011424           0.
      7158.0    0.0011056           0.
      7160.0    0.0010698           0.
      7162.0     0.001035           0.
      7164.0    0.0010012           0.
      7166.0    9.6908E-4           0.
      7168.0    9.3746E-4           0.
      7170.0    9.0674E-4           0.
      7172.0    8.7711E-4           0.
      7174.0    8.4858E-4           0.
      7176.0    8.2223E-4           0.
      7178.0    7.9817E-4           0.
      7180.0    7.7461E-4           0.
      7182.0    7.5124E-4           0.
      7184.0    7.2887E-4           0.
      7186.0    7.0759E-4           0.
      7188.0    6.8771E-4           0.
      7190.0    6.6842E-4           0.
      7192.0    6.5043E-4           0.
      7194.0    6.3382E-4           0.
      7196.0    6.1722E-4           0.
      7198.0    6.0101E-4           0.
      7200.0    5.8580E-4           0.
      7202.0    5.7148E-4           0.
      7204.0    5.5776E-4           0.
      7206.0    5.4524E-4           0.
      7208.0    5.3321E-4           0.
      7210.0    5.2088E-4           0.
      7212.0    5.0865E-4           0.
      7214.0    4.9702E-4           0.
      7216.0    4.8598E-4           0.
      7218.0    4.7564E-4           0.
      7220.0    4.6530E-4           0.
      7222.0    4.5516E-4           0.
      7224.0    4.4552E-4           0.
      7226.0    4.3557E-4           0.
      7228.0    4.2563E-4           0.
      7230.0    4.1668E-4           0.
      7232.0    4.0823E-4           0.
      7234.0    3.9948E-4           0.
      7236.0    3.9053E-4           0.
      7238.0    3.8258E-4           0.
      7240.0    3.7403E-4           0.
      7242.0    3.6528E-4           0.
      7244.0    3.5723E-4           0.
      7246.0    3.4907E-4           0.
      7248.0    3.4092E-4           0.
      7250.0    3.3317E-4           0.
      7252.0    3.2571E-4           0.
      7254.0    3.1895E-4           0.
      7256.0    3.1249E-4           0.
      7258.0    3.0573E-4           0.
      7260.0    2.9897E-4           0.
      7262.0    2.9250E-4           0.
      7264.0    2.8634E-4           0.
      7266.0    2.8017E-4           0.
      7268.0    2.7391E-4           0.
      7270.0    2.6834E-4           0.
      7272.0    2.6258E-4           0.
      7274.0    2.5611E-4           0.
      7276.0    2.4945E-4           0.
      7278.0    2.4359E-4           0.
      7280.0    2.3862E-4           0.
      7282.0    2.3394E-4           0.
      7284.0    2.2877E-4           0.
      7286.0    2.2330E-4           0.
      7288.0    2.1853E-4           0.
      7290.0    2.1386E-4           0.
      7292.0    2.0859E-4           0.
      7294.0    2.0382E-4           0.
      7296.0    1.9934E-4           0.
      7298.0    1.9457E-4           0.
      7300.0    1.9049E-4           0.
      7302.0    1.8672E-4           0.
      7304.0    1.8204E-4           0.
      7306.0    1.7797E-4           0.
      7308.0    1.7469E-4           0.
      7310.0    1.7131E-4           0.
      7312.0    1.6773E-4           0.
      7314.0    1.6385E-4           0.
      7316.0    1.6027E-4           0.
      7318.0    1.5699E-4           0.
      7320.0    1.5331E-4           0.
      7322.0    1.5013E-4           0.
      7324.0    1.4744E-4           0.
      7326.0    1.4486E-4           0.
      7328.0    1.4218E-4           0.
      7330.0    1.3929E-4           0.
      7332.0    1.3611E-4           0.
      7334.0    1.3323E-4           0.
      7336.0    1.3094E-4           0.
      7338.0    1.2845E-4           0.
      7340.0    1.2577E-4           0.
      7342.0    1.2309E-4           0.
      7344.0    1.2070E-4           0.
      7346.0    1.1831E-4           0.
      7348.0    1.1553E-4           0.
      7350.0    1.1374E-4           0.
      7352.0    1.1265E-4           0.
      7354.0    1.1096E-4           0.
      7356.0    1.0887E-4           0.
      7358.0    1.0758E-4           0.
      7360.0    1.0628E-4           0.
      7362.0    1.0489E-4           0.
      7364.0    1.0270E-4           0.
      7366.0    1.0002E-4           0.
      7368.0    9.8737E-5           0.
      7370.0    9.7763E-5           0.
      7372.0    9.6112E-5           0.
      7374.0    9.4770E-5           0.
      7376.0    9.3985E-5           0.
      7378.0    9.3150E-5           0.
      7380.0    9.2384E-5           0.
      7382.0    9.1032E-5           0.
      7384.0    8.9371E-5           0.
      7386.0    8.8507E-5           0.
      7388.0    8.7413E-5           0.
      7390.0    8.5782E-5           0.
      7392.0    8.4023E-5           0.
      7394.0    8.2730E-5           0.
      7396.0    8.1915E-5           0.
      7398.0    8.0831E-5           0.
      7400.0    7.9887E-5           0.
      7402.0    7.8703E-5           0.
      7404.0    7.7620E-5           0.
      7406.0    7.7212E-5           0.
      7408.0    7.6556E-5           0.
      7410.0    7.5591E-5           0.
      7412.0    7.4587E-5           0.
      7414.0    7.3126E-5           0.
      7416.0    7.1217E-5           0.
      7418.0    6.9944E-5           0.
      7420.0    6.9248E-5           0.
      7422.0    6.8542E-5           0.
      7424.0    6.8055E-5           0.
      7426.0    6.7260E-5           0.
      7428.0    6.6385E-5           0.
      7430.0    6.5232E-5           0.
      7432.0    6.4058E-5           0.
      7434.0    6.2627E-5           0.
      7436.0    6.1444E-5           0.
      7438.0    6.0410E-5           0.
      7440.0    5.9415E-5           0.
      7442.0    5.8441E-5           0.
      7444.0    5.7516E-5           0.
      7446.0    5.6661E-5           0.
      7448.0    5.5369E-5           0.
      7450.0    5.4424E-5           0.
      7452.0    5.3788E-5           0.
      7454.0    5.2893E-5           0.
      7456.0    5.1929E-5           0.
      7458.0    5.0805E-5           0.
      7460.0    4.9781E-5           0.
      7462.0    4.9155E-5           0.
      7464.0    4.8200E-5           0.
      7466.0    4.7276E-5           0.
      7468.0    4.6689E-5           0.
      7470.0    4.5735E-5           0.
      7472.0    4.5118E-5           0.
      7474.0    4.4591E-5           0.
      7476.0    4.3428E-5           0.
      7478.0    4.3120E-5           0.
      7480.0    4.2921E-5           0.
      7482.0    4.1937E-5           0.
      7484.0    4.1469E-5           0.
      7486.0    4.0893E-5           0.
      7488.0    3.9889E-5           0.
      7490.0    3.9292E-5           0.
      7492.0    3.8845E-5           0.
      7494.0    3.8397E-5           0.
      7496.0    3.8009E-5           0.
      7498.0    3.8278E-5           0.
      7500.0    3.8825E-5           0.
